{
  "StartWavelength": 380.0,
  "WavelengthStep": 1.0,
  "Values": [
    0.441171438,
    0.445136815,
    0.449101359,
    0.453064859,
    0.457026869,
    0.46098718,
    0.4649454,
    0.468901277,
    0.472854465,
    0.476804644,
    0.480751544,
    0.484694839,
    0.4886342,
    0.492569417,
    0.4965001,
    0.500426,
    0.504346848,
    0.5082623,
    0.5121721,
    0.516075969,
    0.5199737,
    0.523864865,
    0.5277493,
    0.5316267,
    0.535496831,
    0.5393594,
    0.543214142,
    0.547060847,
    0.5508992,
    0.554729,
    0.558549941,
    0.562361836,
    0.566164434,
    0.569957435,
    0.573740661,
    0.577513933,
    0.581276834,
    0.585029364,
    0.588771164,
    0.592502,
    0.596221745,
    0.5999301,
    0.603626966,
    0.607311964,
    0.610985041,
    0.614645958,
    0.6182945,
    0.6219304,
    0.625553548,
    0.6291638,
    0.6327609,
    0.6363446,
    0.6399149,
    0.6434714,
    0.647014141,
    0.650542855,
    0.6540573,
    0.6575574,
    0.661043,
    0.664513946,
    0.667969942,
    0.671411037,
    0.674837,
    0.6782476,
    0.6816428,
    0.6850224,
    0.6883863,
    0.6917343,
    0.6950664,
    0.6983823,
    0.701682031,
    0.704965353,
    0.708232164,
    0.711482346,
    0.7147159,
    0.7179325,
    0.7211322,
    0.724314868,
    0.727480352,
    0.7306285,
    0.733759344,
    0.736872733,
    0.739968538,
    0.7430467,
    0.746107042,
    0.7491496,
    0.752174258,
    0.7551809,
    0.758169532,
    0.76113987,
    0.7640921,
    0.767025948,
    0.769941449,
    0.7728386,
    0.7757171,
    0.7785771,
    0.781418443,
    0.78424114,
    0.787045062,
    0.7898301,
    0.7925964,
    0.7953437,
    0.7980721,
    0.800781548,
    0.803472,
    0.8061432,
    0.8087954,
    0.8114284,
    0.81404227,
    0.81663686,
    0.819212258,
    0.821768343,
    0.824305058,
    0.82682246,
    0.8293205,
    0.8317992,
    0.8342585,
    0.836698353,
    0.839118838,
    0.841519833,
    0.8439014,
    0.846263468,
    0.84860605,
    0.8509292,
    0.8532328,
    0.8555169,
    0.8577816,
    0.860026658,
    0.862252355,
    0.864458561,
    0.866645157,
    0.8688124,
    0.8709601,
    0.8730884,
    0.875197232,
    0.8772866,
    0.879356563,
    0.8814071,
    0.8834382,
    0.885449946,
    0.88744235,
    0.8894154,
    0.891369164,
    0.893303633,
    0.8952188,
    0.897114635,
    0.8989914,
    0.9008489,
    0.902687252,
    0.9045065,
    0.9063066,
    0.9080877,
    0.9098497,
    0.9115927,
    0.9133168,
    0.9150219,
    0.916708052,
    0.9183755,
    0.920024037,
    0.9216538,
    0.9232649,
    0.9248574,
    0.92643106,
    0.927986264,
    0.9295229,
    0.931040943,
    0.932540655,
    0.9340219,
    0.935484767,
    0.9369292,
    0.938355565,
    0.939763665,
    0.941153646,
    0.942525446,
    0.943879247,
    0.945215,
    0.9465329,
    0.9478328,
    0.949115,
    0.9503794,
    0.951626,
    0.952855051,
    0.954066455,
    0.9552603,
    0.956436753,
    0.957595766,
    0.9587374,
    0.959861755,
    0.960968852,
    0.9620588,
    0.9631317,
    0.9641875,
    0.9652264,
    0.966248333,
    0.9672534,
    0.968241751,
    0.969213367,
    0.970168352,
    0.9711068,
    0.9720287,
    0.9729341,
    0.973823249,
    0.97469604,
    0.975552559,
    0.976393,
    0.977217257,
    0.9780256,
    0.97881794,
    0.9795944,
    0.980354965,
    0.981099963,
    0.981829166,
    0.9825428,
    0.9832409,
    0.983923554,
    0.9845909,
    0.9852429,
    0.98587966,
    0.9865012,
    0.987107754,
    0.987699151,
    0.988275766,
    0.9888374,
    0.989384353,
    0.9899165,
    0.9904341,
    0.990937054,
    0.9914256,
    0.991899669,
    0.9923594,
    0.9928048,
    0.9932361,
    0.9936533,
    0.9940564,
    0.994445562,
    0.9948208,
    0.9951822,
    0.99552995,
    0.9958639,
    0.996184349,
    0.9964913,
    0.9967848,
    0.997065,
    0.9973318,
    0.9975854,
    0.9978259,
    0.9980534,
    0.9982678,
    0.9984694,
    0.9986581,
    0.9988341,
    0.998997331,
    0.999148,
    0.9992861,
    0.9994118,
    0.99952507,
    0.9996261,
    0.9997149,
    0.999791443,
    0.999855936,
    0.9999085,
    0.9999491,
    0.9999778,
    0.9999948,
    1.0,
    0.9999936,
    0.9999756,
    0.999946237,
    0.9999054,
    0.9998532,
    0.9997897,
    0.99971503,
    0.9996293,
    0.9995326,
    0.999424756,
    0.9993061,
    0.9991766,
    0.9990364,
    0.9988854,
    0.9987239,
    0.9985519,
    0.998369336,
    0.9981764,
    0.997973144,
    0.9977597,
    0.997536063,
    0.997302234,
    0.997058451,
    0.9968047,
    0.996541,
    0.996267557,
    0.9959843,
    0.9956914,
    0.9953888,
    0.9950768,
    0.994755268,
    0.9944243,
    0.994083941,
    0.9937345,
    0.993375659,
    0.9930078,
    0.992630839,
    0.99224484,
    0.99185,
    0.991446257,
    0.9910337,
    0.990612447,
    0.990182459,
    0.989744,
    0.9892969,
    0.9888414,
    0.9883775,
    0.9879053,
    0.98742485,
    0.986936152,
    0.9864393,
    0.9859343,
    0.9854214,
    0.984900534,
    0.984371841,
    0.9838352,
    0.983291,
    0.9827389,
    0.9821793,
    0.981612146,
    0.9810374,
    0.9804552,
    0.97986573,
    0.9792689,
    0.978664756,
    0.978053451,
    0.977435052,
    0.976809561,
    0.976177,
    0.9755375,
    0.974891067,
    0.9742379,
    0.973577857,
    0.9729112,
    0.972237766,
    0.9715578,
    0.97087127,
    0.970178246,
    0.9694788,
    0.968772948,
    0.9680608,
    0.9673423,
    0.9666178,
    0.96588695,
    0.9651502,
    0.964407265,
    0.9636584,
    0.962903559,
    0.9621429,
    0.9613764,
    0.960604131,
    0.9598262,
    0.959042549,
    0.9582533,
    0.957458556,
    0.956658244,
    0.9558525,
    0.9550414,
    0.954224944,
    0.953403234,
    0.9525762,
    0.9517441,
    0.950906754,
    0.9500644,
    0.9492169,
    0.948364556,
    0.947507143,
    0.9466449,
    0.945777833,
    0.944906,
    0.9440294,
    0.9431481,
    0.9422621,
    0.9413716,
    0.940476537,
    0.9395769,
    0.9386729,
    0.937764466,
    0.9368517,
    0.9359346,
    0.9350132,
    0.9340876,
    0.933157861,
    0.9322239,
    0.931286,
    0.930343866,
    0.9293979,
    0.928447843,
    0.927494,
    0.926536262,
    0.92557466,
    0.924609363,
    0.9236402,
    0.9226675,
    0.921691,
    0.9207109
  ]
}